演算チャンネル,(1)CA-CH01:Channel01
窓関数,長方形
演算点数,100000
演算モード,リニアスペクトル
微積分設定,微積分しない
演算範囲,最新データ
オーバーオール(dBrms),16.869
,0dB=1m/s^2
周波数(Hz),データ(dB)
0,-48.4916
0.1,-58.2997
0.2,-56.8373
0.3,-59.0706
0.4,-58.8933
0.5,-56.8327
0.6,-58.2485
0.7,-57.832
0.8,-57.9475
0.9,-58.3849
1,-57.5608
1.1,-57.3666
1.2,-58.315
1.3,-57.7408
1.4,-57.6414
1.5,-58.0712
1.6,-57.9806
1.7,-57.8333
1.8,-58.1702
1.9,-57.7952
2,-58.2185
2.1,-58.0132
2.2,-57.6155
2.3,-58.0732
2.4,-58.0276
2.5,-57.7265
2.6,-57.7903
2.7,-57.9662
2.8,-58.3043
2.9,-58.2517
3,-57.9015
3.1,-57.8456
3.2,-57.9127
3.3,-58.0475
3.4,-58.3862
3.5,-57.7863
3.6,-57.7968
3.7,-57.8871
3.8,-57.6973
3.9,-57.8738
4,-57.9758
4.1,-58.2452
4.2,-57.8927
4.3,-58.104
4.4,-57.9282
4.5,-58.0977
4.6,-58.1757
4.7,-58.5605
4.8,-58.989
4.9,-58.387
5,-57.0912
5.1,-57.9606
5.2,-59.8452
5.3,-59.2047
5.4,-58.3045
5.5,-56.4205
5.6,-57.4505
5.7,-58.5288
5.8,-58.6359
5.9,-58.5162
6,-58.4639
6.1,-58.466
6.2,-57.668
6.3,-58.1416
6.4,-57.9332
6.5,-58.069
6.6,-58.044
6.7,-58.4434
6.8,-57.5401
6.9,-57.8036
7,-58.0906
7.1,-57.8786
7.2,-59.228
7.3,-58.3423
7.4,-57.9931
7.5,-58.6482
7.6,-58.0763
7.7,-57.7505
7.8,-57.3199
7.9,-58.3585
8,-58.1166
8.1,-58.3284
8.2,-57.965
8.3,-57.8327
8.4,-58.0062
8.5,-58.1587
8.6,-58.2841
8.7,-57.9355
8.8,-57.9313
8.9,-58.3823
9,-57.9566
9.1,-57.9246
9.2,-58.1791
9.3,-58.3891
9.4,-57.839
9.5,-57.9052
9.6,-58.059
9.7,-57.8086
9.8,-57.8263
9.9,-58.0322
10,-58.5894
10.1,-58.5181
10.2,-57.8371
10.3,-58.0015
10.4,-57.8919
10.5,-57.7073
10.6,-57.9752
10.7,-58.325
10.8,-58.1179
10.9,-58.0379
11,-57.8219
11.1,-58.7984
11.2,-57.6838
11.3,-58.4124
11.4,-58.7434
11.5,-58.3751
11.6,-56.8612
11.7,-57.3948
11.8,-57.3648
11.9,-57.6149
12,-57.6691
12.1,-57.7277
12.2,-57.3453
12.3,-60.4282
12.4,-56.1716
12.5,-57.1573
12.6,-58.4988
12.7,-58.3251
12.8,-58.6678
12.9,-58.6503
13,-60.377
13.1,-57.4441
13.2,-56.9052
13.3,-57.1819
13.4,-57.335
13.5,-58.5884
13.6,-56.7532
13.7,-57.8001
13.8,-57.4447
13.9,-57.182
14,-56.9407
14.1,-57.3763
14.2,-57.4945
14.3,-58.6095
14.4,-57.8568
14.5,-58.049
14.6,-57.4859
14.7,-57.286
14.8,-58.591
14.9,-58.5005
15,-57.7625
15.1,-56.9531
15.2,-58.2548
15.3,-57.8586
15.4,-59.4348
15.5,-59.4999
15.6,-58.6647
15.7,-58.0415
15.8,-57.4576
15.9,-56.7966
16,-56.6551
16.1,-58.0601
16.2,-58.6782
16.3,-58.547
16.4,-59.5604
16.5,-58.1368
16.6,-57.8478
16.7,-58.1177
16.8,-58.8219
16.9,-58.5121
17,-57.8691
17.1,-58.037
17.2,-58.4414
17.3,-58.766
17.4,-58.4379
17.5,-57.8741
17.6,-58.3304
17.7,-58.294
17.8,-57.9916
17.9,-58.1034
18,-58.4309
18.1,-58.2356
18.2,-58.2737
18.3,-58.2896
18.4,-57.8064
18.5,-57.8392
18.6,-58.392
18.7,-58.2603
18.8,-57.9068
18.9,-58.2641
19,-58.0614
19.1,-57.6808
19.2,-58.2768
19.3,-58.1174
19.4,-58.2882
19.5,-57.9995
19.6,-58.1005
19.7,-57.8463
19.8,-58.2198
19.9,-58.2755
20,-57.9427
20.1,-57.916
20.2,-58.414
20.3,-58.5996
20.4,-58.2784
20.5,-58.3834
20.6,-58.0822
20.7,-58.0581
20.8,-58.189
20.9,-58.4886
21,-58.5078
21.1,-57.8112
21.2,-58.0053
21.3,-58.2115
21.4,-58.2084
21.5,-58.2606
21.6,-57.6035
21.7,-53.6984
21.8,-57.9388
21.9,-57.8885
22,-58.2494
22.1,-57.8134
22.2,-58.0714
22.3,-58.0468
22.4,-57.7104
22.5,-54.2538
22.6,-57.3047
22.7,-57.0962
22.8,-58.3024
22.9,-57.8537
23,-58.605
23.1,-58.2834
23.2,-58.358
23.3,-57.7348
23.4,-57.746
23.5,-57.6657
23.6,-58.8461
23.7,-59.0742
23.8,-55.8519
23.9,-57.0082
24,-57.7752
24.1,-57.84
24.2,-58.4969
24.3,-58.1517
24.4,-57.7405
24.5,-57.5717
24.6,-58.3219
24.7,-58.9316
24.8,-57.3304
24.9,-57.755
25,-57.6812
25.1,-58.1282
25.2,-58.3883
25.3,-58.6306
25.4,-59.1237
25.5,-57.7607
25.6,-57.6604
25.7,-58.591
25.8,-58.5479
25.9,-57.9803
26,-57.6119
26.1,-57.7328
26.2,-57.9872
26.3,-58.6198
26.4,-58.5544
26.5,-57.7486
26.6,-57.3646
26.7,-57.8633
26.8,-57.9465
26.9,-58.5069
27,-58.2375
27.1,-57.6417
27.2,-57.435
27.3,-58.1686
27.4,-58.8825
27.5,-58.2
27.6,-57.5801
27.7,-57.6764
27.8,-57.8444
27.9,-58.7034
28,-59.4241
28.1,-57.8127
28.2,-57.6952
28.3,-57.6331
28.4,-58.2465
28.5,-58.9513
28.6,-58.3397
28.7,-57.1908
28.8,-57.9317
28.9,-58.1906
29,-58.9713
29.1,-58.1767
29.2,-57.4143
29.3,-57.3921
29.4,-57.897
29.5,-58.3877
29.6,-58.6925
29.7,-58.1125
29.8,-57.8834
29.9,-57.2404
30,-58.1943
30.1,-58.7046
30.2,-58.0108
30.3,-58.2024
30.4,-57.4631
30.5,-58.2964
30.6,-58.855
30.7,-58.5737
30.8,-57.6758
30.9,-57.079
31,-57.8273
31.1,-58.5335
31.2,-59.388
31.3,-57.9611
31.4,-57.8323
31.5,-57.8989
31.6,-57.97
31.7,-58.9481
31.8,-58.4357
31.9,-58.4807
32,-57.2872
32.1,-57.6459
32.2,-58.7526
32.3,-58.8689
32.4,-58.1764
32.5,-57.5014
32.6,-57.443
32.7,-57.9922
32.8,-58.5061
32.9,-58.7758
33,-58.0941
33.1,-57.4533
33.2,-57.3438
33.3,-59.3008
33.4,-58.4245
33.5,-57.7167
33.6,-57.0068
33.7,-57.3009
33.8,-58.7354
33.9,-58.9054
34,-57.9853
34.1,-57.0886
34.2,-57.2393
34.3,-58.265
34.4,-59.6619
34.5,-58.4548
34.6,-57.7488
34.7,-57.198
34.8,-57.3167
34.9,-58.5836
35,-58.9108
35.1,-58.0384
35.2,-56.6001
35.3,-56.9098
35.4,-58.4041
35.5,-60.2275
35.6,-59.1027
35.7,-56.253
35.8,-57.131
35.9,-57.5406
36,-59.0337
36.1,-58.3216
36.2,-56.5203
36.3,-56.504
36.4,-57.3326
36.5,-59.1276
36.6,-59.7753
36.7,-57.7678
36.8,-56.3387
36.9,-56.6934
37,-57.9074
37.1,-58.8126
37.2,-58.7084
37.3,-56.0679
37.4,-55.8037
37.5,-58.2676
37.6,-59.883
37.7,-60.2744
37.8,-56.1111
37.9,-55.5889
38,-56.7055
38.1,-59.8919
38.2,-59.4419
38.3,-58.1283
38.4,-56.0688
38.5,-56.1788
38.6,-58.8426
38.7,-59.1047
38.8,-59.2267
38.9,-57.127
39,-56.501
39.1,-59.0257
39.2,-59.8083
39.3,-61.6484
39.4,-57.8924
39.5,-56.012
39.6,-57.5472
39.7,-60.9936
39.8,-61.317
39.9,-57.9385
40,-56.2096
40.1,-57.1815
40.2,-58.791
40.3,-61.6261
40.4,-57.8409
40.5,-56.3336
40.6,-56.5166
40.7,-57.4953
40.8,-60.5662
40.9,-58.8911
41,-57.0202
41.1,-56.5654
41.2,-57.7148
41.3,-58.9808
41.4,-61.057
41.5,-57.8199
41.6,-55.6768
41.7,-57.7104
41.8,-58.7799
41.9,-60.6889
42,-57.6204
42.1,-55.2476
42.2,-56.2161
42.3,-58.2147
42.4,-61.2492
42.5,-58.0877
42.6,-56.1328
42.7,-55.8205
42.8,-57.1027
42.9,-59.8239
43,-59.517
43.1,-57.3387
43.2,-56.2904
43.3,-56.8243
43.4,-59.5669
43.5,-59.9539
43.6,-57.833
43.7,-57.2715
43.8,-56.9128
43.9,-56.8312
44,-59.1281
44.1,-58.6622
44.2,-56.7983
44.3,-56.6298
44.4,-57.6062
44.5,-58.7666
44.6,-60.0074
44.7,-58.2808
44.8,-56.9033
44.9,-56.9045
45,-57.8087
45.1,-59.2754
45.2,-58.6096
45.3,-57.9907
45.4,-56.4604
45.5,-58.13
45.6,-58.795
45.7,-59.6472
45.8,-58.101
45.9,-56.9267
46,-57.3083
46.1,-57.9002
46.2,-59.5458
46.3,-58.9708
46.4,-56.9223
46.5,-56.9369
46.6,-58.1314
46.7,-58.9379
46.8,-59.5159
46.9,-57.6109
47,-56.5382
47.1,-57.4455
47.2,-58.5977
47.3,-60.1046
47.4,-58.5756
47.5,-57.7013
47.6,-57.0038
47.7,-57.8047
47.8,-58.9455
47.9,-58.4066
48,-57.3849
48.1,-57.2124
48.2,-57.5178
48.3,-58.6446
48.4,-59.4237
48.5,-58.1519
48.6,-57.1074
48.7,-57.1285
48.8,-58.3602
48.9,-59.6367
49,-58.974
49.1,-56.7761
49.2,-58.0526
49.3,-58.3256
49.4,-63.7787
49.5,-56.7515
49.6,-58.0138
49.7,-49.3509
49.8,-52.4795
49.9,-53.2466
50,-50.3913
50.1,-62.197
50.2,-60.7326
50.3,-58.6459
50.4,-58.5336
50.5,-60.2666
50.6,-59.6194
50.7,-58.47
50.8,-57.0436
50.9,-57.8739
51,-59.3391
51.1,-59.921
51.2,-58.3132
51.3,-56.7069
51.4,-56.8764
51.5,-58.3535
51.6,-59.4747
51.7,-59.0851
51.8,-57.2861
51.9,-56.8191
52,-57.6436
52.1,-59.2483
52.2,-60.1294
52.3,-58.2724
52.4,-56.3623
52.5,-56.9138
52.6,-58.959
52.7,-60.5251
52.8,-58.7759
52.9,-56.7449
53,-56.5259
53.1,-57.8398
53.2,-60.2169
53.3,-59.7122
53.4,-56.9831
53.5,-55.6549
53.6,-56.9565
53.7,-59.7135
53.8,-60.9175
53.9,-58.0345
54,-56.0879
54.1,-56.7881
54.2,-58.4919
54.3,-60.6839
54.4,-58.391
54.5,-56.2248
54.6,-56.355
54.7,-57.8865
54.8,-61.27
54.9,-59.094
55,-56.6432
55.1,-56.0987
55.2,-57.2793
55.3,-59.702
55.4,-59.5604
55.5,-57.7221
55.6,-56.313
55.7,-56.6392
55.8,-59.5524
55.9,-60.068
56,-58.4771
56.1,-56.9169
56.2,-55.873
56.3,-57.6645
56.4,-60.2008
56.5,-59.1312
56.6,-57.4579
56.7,-56.2769
56.8,-57.1305
56.9,-59.5166
57,-60.1508
57.1,-57.5224
57.2,-56.514
57.3,-56.9397
57.4,-58.6399
57.5,-60.079
57.6,-58.4321
57.7,-56.7935
57.8,-56.9267
57.9,-57.6999
58,-60.4667
58.1,-59.2465
58.2,-57.2117
58.3,-55.8934
58.4,-57.2415
58.5,-59.0077
58.6,-59.9235
58.7,-57.8326
58.8,-56.1526
58.9,-56.7811
59,-58.4322
59.1,-60.1967
59.2,-58.3654
59.3,-56.2613
59.4,-56.6138
59.5,-57.4492
59.6,-59.6431
59.7,-58.7988
59.8,-56.8743
59.9,-56.6315
60,-57.6774
60.1,-58.7781
60.2,-58.9035
60.3,-57.6345
60.4,-56.8864
60.5,-57.5043
60.6,-58.0395
60.7,-58.9704
60.8,-57.968
60.9,-57.3701
61,-57.5687
61.1,-57.8172
61.2,-58.6707
61.3,-58.3237
61.4,-57.9743
61.5,-57.1549
61.6,-57.4699
61.7,-58.2801
61.8,-58.8237
61.9,-58.0716
62,-57.6138
62.1,-57.4676
62.2,-57.7869
62.3,-58.5649
62.4,-58.2885
62.5,-57.316
62.6,-57.6191
62.7,-57.651
62.8,-57.9094
62.9,-58.4655
63,-58.1607
63.1,-57.185
63.2,-57.6336
63.3,-57.901
63.4,-58.4531
63.5,-58.7248
63.6,-57.9715
63.7,-57.5203
63.8,-57.5745
63.9,-58.194
64,-58.4972
64.1,-57.9781
64.2,-57.7423
64.3,-57.1795
64.4,-57.7727
64.5,-58.2809
64.6,-58.5671
64.7,-57.634
64.8,-57.323
64.9,-57.6082
65,-58.0628
65.1,-58.2648
65.2,-58.5008
65.3,-57.7568
65.4,-57.6065
65.5,-57.6017
65.6,-58.2225
65.7,-58.5417
65.8,-57.9607
65.9,-57.3381
66,-57.6443
66.1,-58.4024
66.2,-58.8594
66.3,-58.4886
66.4,-57.241
66.5,-57.0029
66.6,-57.3505
66.7,-58.6492
66.8,-58.6834
66.9,-57.4659
67,-56.8829
67.1,-57.0799
67.2,-58.5698
67.3,-59.1573
67.4,-58.4202
67.5,-57.1482
67.6,-56.6061
67.7,-57.9443
67.8,-59.206
67.9,-60.4573
68,-57.3486
68.1,-56.5844
68.2,-57.0188
68.3,-59.4909
68.4,-59.6484
68.5,-57.3097
68.6,-56.4675
68.7,-56.4017
68.8,-59.4364
68.9,-59.992
69,-57.8969
69.1,-56.9313
69.2,-56.5066
69.3,-58.193
69.4,-60.2475
69.5,-57.9405
69.6,-56.492
69.7,-56.2539
69.8,-58.1139
69.9,-59.4263
70,-59.116
70.1,-57.0151
70.2,-56.5425
70.3,-57.3711
70.4,-59.4795
70.5,-59.9425
70.6,-57.2672
70.7,-56.1344
70.8,-57.1493
70.9,-58.8073
71,-59.3935
71.1,-58.2811
71.2,-57.2461
71.3,-56.8367
71.4,-57.7225
71.5,-59.2139
71.6,-58.7512
71.7,-57.675
71.8,-56.7137
71.9,-57.5488
72,-59.1312
72.1,-59.1612
72.2,-58.5934
72.3,-56.7772
72.4,-56.5581
72.5,-58.2517
72.6,-59.5364
72.7,-58.3811
72.8,-56.6916
72.9,-56.7484
73,-58.0881
73.1,-59.5216
73.2,-59.2088
73.3,-57.182
73.4,-57.143
73.5,-57.3922
73.6,-58.8496
73.7,-59.8711
73.8,-57.8421
73.9,-56.5361
74,-57.881
74.1,-57.6812
74.2,-59.1777
74.3,-57.9723
74.4,-57.1764
74.5,-56.1154
74.6,-57.4795
74.7,-59.2252
74.8,-58.6112
74.9,-57.1787
75,-56.1791
75.1,-57.0961
75.2,-59.1101
75.3,-59.1963
75.4,-57.6204
75.5,-56.8136
75.6,-56.502
75.7,-58.478
75.8,-59.3554
75.9,-58.1455
76,-56.6167
76.1,-56.3998
76.2,-57.4451
76.3,-59.7237
76.4,-59.0721
76.5,-57.8626
76.6,-56.6749
76.7,-56.8814
76.8,-58.2812
76.9,-58.4082
77,-58.0336
77.1,-57.1278
77.2,-57.9855
77.3,-57.9649
77.4,-58.4936
77.5,-57.8082
77.6,-57.018
77.7,-57.3485
77.8,-57.8082
77.9,-59.7227
78,-58.7169
78.1,-57.8558
78.2,-57.6484
78.3,-57.6281
78.4,-60.3064
78.5,-59.3042
78.6,-57.2618
78.7,-56.7158
78.8,-57.4198
78.9,-59.0351
79,-59.1848
79.1,-57.1968
79.2,-57.5525
79.3,-56.8521
79.4,-58.6368
79.5,-58.3012
79.6,-58.212
79.7,-57.7211
79.8,-57.5727
79.9,-57.3346
80,-57.9195
80.1,-58.1865
80.2,-57.9067
80.3,-57.9083
80.4,-57.2323
80.5,-57.735
80.6,-58.3012
80.7,-58.0994
80.8,-57.436
80.9,-57.7614
81,-57.7515
81.1,-58.5047
81.2,-58.014
81.3,-57.6745
81.4,-57.1358
81.5,-57.3594
81.6,-58.2095
81.7,-58.085
81.8,-57.8199
81.9,-57.2667
82,-57.674
82.1,-57.9669
82.2,-58.3658
82.3,-57.9695
82.4,-57.9299
82.5,-57.759
82.6,-57.5673
82.7,-58.1416
82.8,-58.0042
82.9,-57.5558
83,-57.6126
83.1,-57.4877
83.2,-58.0628
83.3,-57.9836
83.4,-58.1055
83.5,-57.7623
83.6,-57.4205
83.7,-57.8163
83.8,-57.954
83.9,-57.8606
84,-57.5998
84.1,-57.39
84.2,-57.4697
84.3,-58.2794
84.4,-58.0278
84.5,-58.1848
84.6,-57.6866
84.7,-57.7763
84.8,-58.1185
84.9,-58.2662
85,-58.0651
85.1,-57.7337
85.2,-57.6359
85.3,-57.8689
85.4,-58.0308
85.5,-58.1692
85.6,-57.7725
85.7,-57.7747
85.8,-57.8687
85.9,-58.1016
86,-58.1348
86.1,-57.696
86.2,-57.5673
86.3,-57.7412
86.4,-57.6268
86.5,-57.9601
86.6,-57.6823
86.7,-57.6935
86.8,-57.6418
86.9,-57.7193
87,-58.0139
87.1,-58.1749
87.2,-57.8114
87.3,-57.4853
87.4,-57.7355
87.5,-57.9869
87.6,-57.9996
87.7,-58.2894
87.8,-57.5137
87.9,-57.4586
88,-58.2662
88.1,-57.7791
88.2,-57.6074
88.3,-57.6677
88.4,-57.5504
88.5,-57.7385
88.6,-57.9164
88.7,-57.9498
88.8,-58.1836
88.9,-57.4822
89,-57.7604
89.1,-57.9258
89.2,-57.9195
89.3,-57.9187
89.4,-57.8416
89.5,-57.656
89.6,-57.6007
89.7,-57.9121
89.8,-57.777
89.9,-57.7307
90,-57.6617
90.1,-57.8693
90.2,-57.9594
90.3,-57.9875
90.4,-57.8805
90.5,-57.689
90.6,-57.6554
90.7,-57.872
90.8,-57.7753
90.9,-58.0614
91,-57.7043
91.1,-57.7663
91.2,-57.8362
91.3,-58.0381
91.4,-57.8614
91.5,-57.7352
91.6,-57.7967
91.7,-57.7478
91.8,-57.7879
91.9,-57.6358
92,-57.837
92.1,-57.7274
92.2,-57.8481
92.3,-57.7648
92.4,-57.7172
92.5,-57.8048
92.6,-57.7521
92.7,-57.6192
92.8,-57.8672
92.9,-57.8096
93,-57.9628
93.1,-57.5716
93.2,-57.4746
93.3,-57.8357
93.4,-57.865
93.5,-57.7696
93.6,-57.8928
93.7,-57.7536
93.8,-57.8372
93.9,-57.7333
94,-58.0407
94.1,-57.5537
94.2,-57.8328
94.3,-57.5655
94.4,-57.809
94.5,-57.9126
94.6,-57.9125
94.7,-57.6964
94.8,-57.6497
94.9,-57.6917
95,-57.8062
95.1,-57.6279
95.2,-57.7686
95.3,-57.6432
95.4,-57.6035
95.5,-57.9876
95.6,-57.6771
95.7,-57.7467
95.8,-57.5337
95.9,-57.7
96,-57.8137
96.1,-57.6736
96.2,-57.8017
96.3,-57.7264
96.4,-57.8876
96.5,-57.7635
96.6,-57.7495
96.7,-57.8171
96.8,-57.7775
96.9,-57.7506
97,-57.5961
97.1,-57.8828
97.2,-58.0241
97.3,-57.7741
97.4,-57.812
97.5,-57.7634
97.6,-57.8237
97.7,-57.9516
97.8,-57.6383
97.9,-57.539
98,-57.8963
98.1,-57.8103
98.2,-57.8711
98.3,-57.6732
98.4,-57.8104
98.5,-57.588
98.6,-57.6493
98.7,-57.6909
98.8,-57.8207
98.9,-57.6995
99,-57.7609
99.1,-57.7314
99.2,-57.7307
99.3,-57.7069
99.4,-57.6748
99.5,-57.8406
99.6,-57.9446
99.7,-57.4802
99.8,-57.8511
99.9,-57.737
100,-57.6965
100.1,-57.8649
100.2,-57.7405
100.3,-57.7979
100.4,-57.7247
100.5,-57.7577
100.6,-57.6855
100.7,-57.697
100.8,-57.754
100.9,-57.6511
101,-57.6454
101.1,-57.6305
101.2,-57.7153
101.3,-57.8004
101.4,-57.7657
101.5,-57.9404
101.6,-57.5959
101.7,-57.7388
101.8,-57.7191
101.9,-57.5703
102,-57.7452
102.1,-57.6423
102.2,-57.8623
102.3,-57.7195
102.4,-57.6643
102.5,-57.6845
102.6,-57.7391
102.7,-57.8027
102.8,-57.823
102.9,-57.7665
103,-57.9205
103.1,-57.8277
103.2,-57.7356
103.3,-57.705
103.4,-57.6541
103.5,-57.7068
103.6,-57.8942
103.7,-57.7893
103.8,-57.7931
103.9,-57.5877
104,-57.6715
104.1,-57.7155
104.2,-57.875
104.3,-57.7027
104.4,-57.5344
104.5,-57.5763
104.6,-57.8264
104.7,-57.7164
104.8,-57.9303
104.9,-57.6043
105,-57.8244
105.1,-57.7231
105.2,-57.781
105.3,-57.8615
105.4,-57.7499
105.5,-57.7428
105.6,-57.6429
105.7,-57.5921
105.8,-57.7592
105.9,-57.6551
106,-57.8664
106.1,-57.6289
106.2,-57.8066
106.3,-57.5738
106.4,-57.7322
106.5,-57.8245
106.6,-57.7017
106.7,-57.6564
106.8,-57.7114
106.9,-57.6734
107,-57.6928
107.1,-57.7376
107.2,-57.7565
107.3,-57.8688
107.4,-57.7699
107.5,-57.9904
107.6,-57.7094
107.7,-57.8075
107.8,-57.7686
107.9,-57.7094
108,-57.9315
108.1,-57.7268
108.2,-57.6797
108.3,-57.6749
108.4,-57.7554
108.5,-57.7744
108.6,-57.8271
108.7,-57.6748
108.8,-57.3953
108.9,-57.5096
109,-57.9723
109.1,-57.5182
109.2,-57.465
109.3,-57.6395
109.4,-57.43
109.5,-57.5751
109.6,-57.4267
109.7,-57.8108
109.8,-57.166
109.9,-58.1287
110,-57.3534
110.1,-57.7728
110.2,-57.8085
110.3,-57.6
110.4,-57.8424
110.5,-57.4691
110.6,-57.6875
110.7,-57.5868
110.8,-57.4641
110.9,-57.7636
111,-57.3897
111.1,-57.8222
111.2,-57.5344
111.3,-57.7755
111.4,-57.4995
111.5,-57.3867
111.6,-57.7736
111.7,-57.6659
111.8,-57.8011
111.9,-57.8305
112,-57.5634
112.1,-57.6676
112.2,-57.4208
112.3,-57.7532
112.4,-57.666
112.5,-57.4696
112.6,-57.7626
112.7,-57.577
112.8,-57.5851
112.9,-57.7057
113,-57.6509
113.1,-57.6101
113.2,-57.3872
113.3,-57.5347
113.4,-57.7613
113.5,-57.9812
113.6,-57.7162
113.7,-57.599
113.8,-57.7058
113.9,-57.4834
114,-57.7696
114.1,-57.7129
114.2,-57.6629
114.3,-57.5202
114.4,-57.6304
114.5,-57.9568
114.6,-57.5254
114.7,-57.7418
114.8,-57.6104
114.9,-57.475
115,-57.4867
115.1,-57.5189
115.2,-57.7888
115.3,-57.421
115.4,-57.392
115.5,-57.4252
115.6,-57.8261
115.7,-57.6189
115.8,-57.4822
115.9,-57.5114
116,-57.4754
116.1,-57.9506
116.2,-57.7502
116.3,-57.698
116.4,-57.514
116.5,-57.7588
116.6,-57.7358
116.7,-57.714
116.8,-57.6603
116.9,-57.3268
117,-57.6737
117.1,-57.5583
117.2,-57.6587
117.3,-57.6956
117.4,-57.48
117.5,-57.4053
117.6,-57.4803
117.7,-57.7102
117.8,-57.6437
117.9,-57.4777
118,-57.3946
118.1,-57.719
118.2,-57.7657
118.3,-57.5358
118.4,-57.4688
118.5,-57.417
118.6,-57.6709
118.7,-57.6583
118.8,-57.7608
118.9,-57.7692
119,-57.6977
119.1,-57.7688
119.2,-57.3728
119.3,-57.7015
119.4,-57.8114
119.5,-57.6263
119.6,-57.564
119.7,-57.3375
119.8,-57.5439
119.9,-58.013
120,-64.4325
120.1,-57.4601
120.2,-57.253
120.3,-57.4853
120.4,-57.8651
120.5,-57.9009
120.6,-57.4829
120.7,-57.4632
120.8,-57.4526
120.9,-57.6332
121,-57.9493
121.1,-57.5239
121.2,-57.5819
121.3,-57.5323
121.4,-57.662
121.5,-57.6378
121.6,-57.6406
121.7,-57.6445
121.8,-57.2865
121.9,-57.5631
122,-57.4422
122.1,-57.8857
122.2,-57.6431
122.3,-57.6516
122.4,-57.4083
122.5,-57.469
122.6,-57.9582
122.7,-57.5602
122.8,-57.548
122.9,-57.4194
123,-57.6134
123.1,-57.7322
123.2,-57.6768
123.3,-57.2886
123.4,-57.7731
123.5,-57.342
123.6,-57.9082
123.7,-57.6368
123.8,-57.4773
123.9,-57.5073
124,-57.4788
124.1,-57.5234
124.2,-57.8064
124.3,-57.4885
124.4,-57.5739
124.5,-57.1956
124.6,-57.6392
124.7,-57.8007
124.8,-57.7566
124.9,-57.6398
125,-57.3423
125.1,-57.5672
125.2,-57.5252
125.3,-57.8085
125.4,-57.7895
125.5,-57.44
125.6,-57.3618
125.7,-57.5665
125.8,-57.8772
125.9,-57.8562
126,-57.4507
126.1,-57.1941
126.2,-57.573
126.3,-57.5542
126.4,-57.703
126.5,-57.5686
126.6,-57.392
126.7,-57.3314
126.8,-57.7157
126.9,-57.6707
127,-57.4294
127.1,-57.6889
127.2,-57.3858
127.3,-57.8133
127.4,-57.7969
127.5,-57.7407
127.6,-57.3701
127.7,-57.2441
127.8,-57.3853
127.9,-57.944
128,-57.6813
128.1,-57.5171
128.2,-57.3116
128.3,-57.4463
128.4,-57.6113
128.5,-57.6764
128.6,-57.6499
128.7,-57.3967
128.8,-57.3524
128.9,-57.4586
129,-57.7711
129.1,-57.5908
129.2,-57.4455
129.3,-57.5823
129.4,-57.2376
129.5,-57.5267
129.6,-57.5929
129.7,-57.4466
129.8,-57.235
129.9,-57.2881
130,-57.5794
130.1,-57.6369
130.2,-57.472
130.3,-57.3651
130.4,-57.2715
130.5,-57.4158
130.6,-57.4786
130.7,-57.5695
130.8,-57.3614
130.9,-57.2626
131,-57.3941
131.1,-57.3809
131.2,-57.5863
131.3,-57.5014
131.4,-57.2867
131.5,-57.2773
131.6,-56.3197
131.7,-58.1621
131.8,-58.1679
131.9,-57.3387
132,-57.8264
132.1,-57.5018
132.2,-57.7034
132.3,-57.7542
132.4,-57.5104
132.5,-57.1346
132.6,-57.461
132.7,-57.606
132.8,-57.7161
132.9,-57.392
133,-57.1652
133.1,-57.3682
133.2,-57.65
133.3,-57.8092
133.4,-57.8178
133.5,-57.6266
133.6,-57.3221
133.7,-57.5274
133.8,-57.7448
133.9,-57.9505
134,-57.3778
134.1,-57.3348
134.2,-57.3816
134.3,-57.6383
134.4,-57.6499
134.5,-57.8303
134.6,-57.0863
134.7,-57.1027
134.8,-57.6374
134.9,-57.7574
135,-57.7635
135.1,-57.1095
135.2,-57.3489
135.3,-57.4152
135.4,-57.624
135.5,-57.4011
135.6,-57.3466
135.7,-57.4295
135.8,-57.2899
135.9,-57.32
136,-57.545
136.1,-57.7338
136.2,-57.5167
136.3,-57.1825
136.4,-57.3758
136.5,-57.7641
136.6,-57.6237
136.7,-57.448
136.8,-57.029
136.9,-57.622
137,-57.8719
137.1,-57.7965
137.2,-57.4076
137.3,-57.2774
137.4,-57.1847
137.5,-57.6661
137.6,-57.8808
137.7,-57.3973
137.8,-57.5115
137.9,-57.1475
138,-57.9638
138.1,-57.617
138.2,-57.5684
138.3,-57.3276
138.4,-57.1641
138.5,-57.593
138.6,-57.5551
138.7,-57.8099
138.8,-57.1085
138.9,-57.1621
139,-57.3094
139.1,-57.5259
139.2,-58.0009
139.3,-57.6562
139.4,-56.9452
139.5,-57.3003
139.6,-57.7179
139.7,-57.7609
139.8,-57.6704
139.9,-56.8527
140,-57.5309
140.1,-57.4889
140.2,-57.5469
140.3,-57.6598
140.4,-57.3335
140.5,-57.2488
140.6,-57.6902
140.7,-57.471
140.8,-57.4941
140.9,-57.34
141,-57.1177
141.1,-57.2807
141.2,-57.3571
141.3,-57.6817
141.4,-57.397
141.5,-57.158
141.6,-57.0321
141.7,-57.4446
141.8,-57.387
141.9,-57.582
142,-57.3841
142.1,-57.4403
142.2,-57.2028
142.3,-57.5552
142.4,-57.6781
142.5,-57.3135
142.6,-57.2299
142.7,-57.3107
142.8,-57.4285
